# 2theta	intensity	intensity_norm
0.12500000	0.00000000	0.00000000
0.37500000	0.00000000	0.00000000
0.62500000	0.00000000	0.00000000
0.87500000	8597898216.61845016	100.00000000
1.12500000	5961018810.70069981	69.33111629
1.37500000	0.00000000	0.00000000
1.62500000	1817542536.73096275	21.13938187
1.87500000	7947090944.77002048	92.43062368
2.12500000	0.00000000	0.00000000
2.37500000	5029929536.64639187	58.50185022
2.62500000	500234331.18524539	5.81810017
2.87500000	2294102642.16260242	26.68213306
3.12500000	2207023753.38735390	25.66934032
3.37500000	680613242.72802496	7.91604210
3.62500000	1910188327.66631269	22.21692185
3.87500000	942941274.89898288	10.96711372
4.12500000	1150110195.60059500	13.37664353
4.37500000	370894518.83003592	4.31378122
4.62500000	543208380.67054427	6.31792058
4.87500000	805252976.68349731	9.36569562
5.12500000	164837113.54649311	1.91717917
5.37500000	362418152.95577002	4.21519474
5.62500000	259048297.73728868	3.01292585
5.87500000	218748611.93126512	2.54421030
6.12500000	217132933.73189580	2.52541875
6.37500000	163461630.51255766	1.90118127
6.62500000	98229826.27959773	1.14248650
6.87500000	90365314.14692150	1.05101633
7.12500000	139577982.49569562	1.62339654
7.37500000	77880312.32164533	0.90580640
7.62500000	52938864.65292865	0.61571867
7.87500000	103248479.03616375	1.20085719
8.12500000	65104860.76609560	0.75721832
8.37500000	66143544.95219508	0.76929900
8.62500000	64323561.85651927	0.74813123
8.87500000	56699520.52994698	0.65945792
9.12500000	55015425.90433742	0.63987063
9.37500000	43398825.35738109	0.50476086
9.62500000	40462802.52238612	0.47061272
9.87500000	45399904.48397518	0.52803491
10.12500000	33718791.52303127	0.39217482
10.37500000	21378722.57296470	0.24865057
10.62500000	18550262.95320109	0.21575346
10.87500000	24562460.25980470	0.28567982
11.12500000	24925382.03035094	0.28990087
11.37500000	12526228.45590620	0.14568942
11.62500000	21042544.48507710	0.24474056
11.87500000	15001569.30479745	0.17447949
12.12500000	9217651.63064221	0.10720820
12.37500000	18927515.02477105	0.22014119
12.62500000	18742989.43499166	0.21799501
12.87500000	17430045.01554172	0.20272449
13.12500000	14572707.88975459	0.16949151
13.37500000	40434090.36553800	0.47027877
13.62500000	23424182.45811256	0.27244080
13.87500000	19715047.97450885	0.22930078
14.12500000	38422221.01125097	0.44687923
14.37500000	45424486.56421345	0.52832082
14.62500000	36363426.57394612	0.42293390
14.87500000	20614381.02429952	0.23976070
15.12500000	70211795.63436401	0.81661580
15.37500000	42757428.23351894	0.49730094
15.62500000	28545227.46702339	0.33200239
15.87500000	39556556.82492504	0.46007240
16.12500000	69699671.53396595	0.81065942
16.37500000	46376289.29176655	0.53939100
16.62500000	23694151.66680419	0.27558074
16.87500000	76029615.13290961	0.88428140
17.12500000	39193467.43869065	0.45584940
17.37500000	37447162.61914172	0.43553857
17.62500000	35016740.45597567	0.40727093
17.87500000	54638562.56165893	0.63548743
18.12500000	35573775.36285462	0.41374967
18.37500000	22518249.21114425	0.26190411
18.62500000	41983508.20614723	0.48829967
18.87500000	38497668.31412138	0.44775673
19.12500000	27597595.49670016	0.32098072
19.37500000	19929869.06429873	0.23179931
19.62500000	35426451.51804155	0.41203618
19.87500000	27339204.06865685	0.31797543
20.12500000	23496713.87494992	0.27328439
20.37500000	28702356.83125936	0.33382992
20.62500000	21979890.15804327	0.25564260
20.87500000	32413396.09302855	0.37699209
21.12500000	31371844.28930382	0.36487806
21.37500000	26156021.68307633	0.30421413
21.62500000	45347880.98952881	0.52742984
21.87500000	43688091.78739055	0.50812525
22.12500000	31660597.37088402	0.36823648
22.37500000	65745593.61955107	0.76467053
22.62500000	50663013.28832477	0.58924881
22.87500000	34390524.75257834	0.39998758
23.12500000	69593000.73991410	0.80941876
23.37500000	60591494.71368487	0.70472449
23.62500000	46269116.20962602	0.53814450
23.87500000	70064803.06894964	0.81490617
24.12500000	66519281.33919912	0.77366910
24.37500000	33852709.52352002	0.39373238
24.62500000	58712982.80234292	0.68287599
24.87500000	63682348.44700783	0.74067344
25.12500000	39982439.25914082	0.46502573
25.37500000	37176279.12994069	0.43238799
25.62500000	60864558.07169141	0.70790043
25.87500000	38051056.03316945	0.44256230
26.12500000	38842405.77205785	0.45176629
26.37500000	55921868.54847606	0.65041324
26.62500000	35664285.25151569	0.41480237
26.87500000	38552337.31362142	0.44839258
27.12500000	53109648.10426793	0.61770501
27.37500000	41304469.42862494	0.48040194
27.62500000	43625668.13376733	0.50739922
27.87500000	40124552.56748963	0.46667862
28.12500000	52138360.69792262	0.60640821
28.37500000	34875122.73784631	0.40562381
28.62500000	49530389.42720670	0.57607555
28.87500000	37243145.16049688	0.43316569
29.12500000	47398338.06100418	0.55127819
29.37500000	41730560.70343900	0.48535770
29.62500000	44840225.16082912	0.52152542
29.87500000	43226167.37842982	0.50275272
30.12500000	38148038.03069634	0.44369027
30.37500000	43905042.72784591	0.51064855
30.62500000	38403322.13702048	0.44665942
30.87500000	36820264.39430341	0.42824727
31.12500000	32160668.54858636	0.37405268
31.37500000	51697175.78401309	0.60127690
31.62500000	33137192.01664276	0.38541038
31.87500000	37445921.72742420	0.43552413
32.12500000	40987946.02090847	0.47672053
32.37500000	43466288.29781228	0.50554551
32.62500000	32862842.37608683	0.38221949
32.87500000	30471699.42307667	0.35440870
33.12500000	47442162.27067008	0.55178790
33.37500000	37407866.23631261	0.43508152
33.62500000	36835290.88705311	0.42842204
33.87500000	22396046.62772004	0.26048281
34.12500000	56490047.78018115	0.65702159
34.37500000	28276235.85431582	0.32887381
34.62500000	35318298.26239346	0.41077828
34.87500000	33967582.48453930	0.39506844
35.12500000	39402189.52178009	0.45827699
35.37500000	35275925.70810913	0.41028545
35.62500000	24251400.84333560	0.28206197
35.87500000	38662884.15015663	0.44967832
36.12500000	36979458.96506462	0.43009882
36.37500000	26615629.31530628	0.30955972
36.62500000	24991579.43882370	0.29067080
36.87500000	37184379.55142763	0.43248220
37.12500000	29914252.17649930	0.34792517
37.37500000	27420616.13876377	0.31892232
37.62500000	20941695.08769186	0.24356761
37.87500000	39249701.02775129	0.45650344
38.12500000	24144660.08834318	0.28082049
38.37500000	28929523.31109997	0.33647204
38.62500000	29565513.54927615	0.34386908
38.87500000	29618173.21753291	0.34448155
39.12500000	32668248.95606272	0.37995622
39.37500000	27096061.71082081	0.31514750
39.62500000	30007788.45954654	0.34901307
39.87500000	30229574.74541245	0.35159261
40.12500000	36115161.60979999	0.42004640
40.37500000	33234576.16928211	0.38654303
40.62500000	31662671.87471347	0.36826060
40.87500000	38690124.33527146	0.44999514
41.12500000	34917725.02772290	0.40611931
41.37500000	34262887.70921513	0.39850306
41.62500000	41730255.28382688	0.48535414
41.87500000	35356735.88399222	0.41122534
42.12500000	35419715.27909673	0.41195783
42.37500000	42449398.58047673	0.49371832
42.62500000	35380988.94955488	0.41150742
42.87500000	33819741.02658083	0.39334893
43.12500000	37637452.20858609	0.43775178
43.37500000	34645265.90054956	0.40295041
43.62500000	30110776.52708867	0.35021090
43.87500000	37143821.59078377	0.43201048
44.12500000	30614480.01423845	0.35606935
44.37500000	27963967.48922392	0.32524190
44.62500000	28991993.85482283	0.33719862
44.87500000	32567471.69971982	0.37878410
45.12500000	25644959.76851243	0.29827010
45.37500000	21442980.98372092	0.24939794
45.62500000	27922939.41344643	0.32476471
45.87500000	28192180.50830871	0.32789619
46.12500000	21053192.24512110	0.24486440
46.37500000	23253690.71763607	0.27045785
46.62500000	25207783.26344809	0.29318541
46.87500000	22495475.65217278	0.26163924
47.12500000	21084790.06083289	0.24523191
47.37500000	25511290.42949668	0.29671543
47.62500000	22510051.09981672	0.26180876
47.87500000	20639074.60811562	0.24004791
48.12500000	24878751.38051500	0.28935852
48.37500000	24822093.08197428	0.28869955
48.62500000	20330341.58312608	0.23645711
48.87500000	23577572.26001398	0.27422484
49.12500000	25151468.31034452	0.29253043
49.37500000	23848655.22169472	0.27737773
49.62500000	22085925.09219283	0.25687586
49.87500000	25147283.39257428	0.29248175
50.12500000	24631350.91828172	0.28648107
50.37500000	20724700.97075124	0.24104380
50.62500000	27081978.62547151	0.31498371
50.87500000	18509543.12692963	0.21527986
51.12500000	27921427.97248776	0.32474713
51.37500000	24676300.18775052	0.28700386
51.62500000	22121528.09414655	0.25728995
51.87500000	16957149.49115990	0.19722436
52.12500000	25117344.74184582	0.29213354
52.37500000	22133539.38375222	0.25742965
52.62500000	18738128.51454444	0.21793848
52.87500000	18129627.53124532	0.21086116
53.12500000	25896955.42949075	0.30120100
53.37500000	18807930.32392547	0.21875033
53.62500000	20472607.59069895	0.23811177
53.87500000	16122513.57963037	0.18751692
54.12500000	25904436.59663865	0.30128801
54.37500000	18804902.18422977	0.21871511
54.62500000	18235678.53469144	0.21209461
54.87500000	18989615.13282962	0.22086346
55.12500000	20301223.11663591	0.23611844
55.37500000	18168297.36534647	0.21131091
55.62500000	19757251.05420246	0.22979164
55.87500000	14675583.70752021	0.17068804
56.12500000	22323664.53195064	0.25964095
56.37500000	15509585.52191302	0.18038810
56.62500000	19698048.66362779	0.22910307
56.87500000	16180755.55281751	0.18819431
57.12500000	18088681.24400054	0.21038492
57.37500000	17453560.86965652	0.20299799
57.62500000	19816080.54261849	0.23047587
57.87500000	15367688.34565199	0.17873773
58.12500000	20181960.67444408	0.23473133
58.37500000	14710415.58161781	0.17109316
58.62500000	19713077.04433060	0.22927786
58.87500000	15522579.86913820	0.18053924
59.12500000	18280627.00965839	0.21261739
59.37500000	15863980.33938427	0.18450998
59.62500000	17571671.95486620	0.20437171
59.87500000	15163705.11875114	0.17636526
